File: polcurvefit/data/example_gamry.DTA
EXPLAIN
TAG	CYCPOL
TITLE	LABEL	Cyclic Polarization Scan	Test Identifier
DATE	LABEL	15.11.2021	Date
TIME	LABEL	15:57:59	Time
NOTES	NOTES	1	Notes...

PSTAT	PSTAT	IFC1010-30110	Potentiostat
VINIT	POTEN	-1.50000E+000	F	Initial E (V)
VAPEX	POTEN	3.00000E-001	T	Apex E (V)
VFINAL	POTEN	-1.50000E+000	F	Final E (V)
ILIMIT	QUANT	1.00000E+003	Apex I (mA/cm^2)
SCANFWD	QUANT	5.00000E-001	Forward Scan (mV/s)
SCANREV	QUANT	5.00000E-001	Reverse Scan (mV/s)
SAMPLETIME	QUANT	1.00000E+000	Sample Period (s)
AREA	QUANT	1.00000E+000	Sample Area (cm^2)
DENSITY	QUANT	7.87000E+000	Density (g/cm^3)
EQUIV	QUANT	2.79200E+001	Equiv. Wt
IRCOMP	TOGGLE	F	IR Comp
EQDELAY	QUANT	0.00000E+000	Equil. Time (s)
EOC	QUANT	-0.1737256	Open Circuit (V)
ELECTRODETYPE	SELECTOR	0	Electrode Type
STRIPPING	TOGGLE	F	Used for Stripping
SEQUENCER	TOGGLE	TRUE	Run as Sequence
PSTATMODEL	IQUANT	64	Pstat Model
PSTATSECTION	LABEL	IFC1010-30110	Pstat Section
PSTATSERIALNO	LABEL	30110	Pstat Serial Number
CTRLMODE	IQUANT	1	Control Mode
ELECTROMETER	IQUANT	0	RE=0 or CS=1
IESTAB	IQUANT	2	I/E Stability
CASPEED	IQUANT	4	Control Amp Speed
CONVENTION	IQUANT	1	Current Convention
ICHRANGE	IQUANT	2	Ich Range
ICHRANGEMODE	TOGGLE	T	Ich Auto Range
ICHOFFSETENABLE	TOGGLE	F	Ich Offset Enable
ICHOFFSET	QUANT	0	Ich Offset (V)
ICHFILTER	IQUANT	4	Ich Filter
VCHRANGE	IQUANT	3	Vch Range
VCHRANGEMODE	TOGGLE	T	Vch Auto Range
VCHOFFSETENABLE	TOGGLE	F	Vch Offset Enable
VCHOFFSET	QUANT	0	Vch Offset (V)
VCHFILTER	IQUANT	4	Vch Filter
IERANGELOWERLIMIT	IQUANT	4	I/E Range Lower Limit
IERANGEMODE	TOGGLE	T	I/E AutoRange
IERANGE	IQUANT	11	I/E Range
ACHSELECT	IQUANT	0	Ach Select
ACHRANGE	IQUANT	2	Ach Range
ACHOFFSETENABLE	TOGGLE	F	Ach Offset Enable
ACHOFFSET	QUANT	0	Ach Offset (V)
ACHFILTER	IQUANT	1	Ach Filter
SENSECABLEID	IQUANT	14	Sense Cable ID
PWRCABLEID	IQUANT	14	Power Cable ID
DCCALDATE	LABEL	9/16/2021	DC Calibration Date
ACCALDATE	LABEL		AC Calibration Date
FRAMEWORKVERSION	LABEL	7.8.6	Framework Version
INSTRUMENTVERSION	LABEL	4.50	Instrument Version
CURVE	TABLE	6507
	Pt	T	Vf	Im	Vu	Sig	Ach	IERange	Over	Temp
	#	s	V vs. Ref.	A	V	V	V	#	bits	deg C
	0	1	-1.50013E+000	-9.61514E-004	0.00000E+000	-1.50000E+000	0.00000E+000	10	...........	1400.82
	33	34	-1.48372E+000	-8.40184E-004	0.00000E+000	-1.48350E+000	0.00000E+000	10	...........	1401.17
	66	67	-1.46720E+000	-7.85055E-004	0.00000E+000	-1.46700E+000	0.00000E+000	9	...........	1401.17
	99	100	-1.45071E+000	-7.44479E-004	0.00000E+000	-1.45050E+000	0.00000E+000	9	...........	1401.17
	132	133	-1.43421E+000	-7.08384E-004	0.00000E+000	-1.43400E+000	0.00000E+000	9	...........	1401.17
	165	166	-1.41771E+000	-6.74722E-004	0.00000E+000	-1.41750E+000	0.00000E+000	9	...........	1401.08
	198	199	-1.40119E+000	-6.41462E-004	0.00000E+000	-1.40100E+000	0.00000E+000	9	...........	1401.17
	231	232	-1.38468E+000	-6.16005E-004	0.00000E+000	-1.38450E+000	0.00000E+000	9	...........	1401.17
	264	265	-1.36817E+000	-5.82824E-004	0.00000E+000	-1.36800E+000	0.00000E+000	9	...........	1401.17
	297	298	-1.35169E+000	-5.50026E-004	0.00000E+000	-1.35150E+000	0.00000E+000	9	...........	1401.17
	330	331	-1.33517E+000	-5.19068E-004	0.00000E+000	-1.33500E+000	0.00000E+000	9	...........	1401.17
	363	364	-1.31868E+000	-4.87006E-004	0.00000E+000	-1.31850E+000	0.00000E+000	9	...........	1401.17
	396	397	-1.30216E+000	-4.54392E-004	0.00000E+000	-1.30200E+000	0.00000E+000	9	...........	1401.08
	429	430	-1.28569E+000	-4.23547E-004	0.00000E+000	-1.28550E+000	0.00000E+000	9	...........	1401.17
	462	463	-1.26918E+000	-3.96314E-004	0.00000E+000	-1.26900E+000	0.00000E+000	9	...........	1401.08
	495	496	-1.25267E+000	-3.68392E-004	0.00000E+000	-1.25250E+000	0.00000E+000	9	...........	1401.08
	528	529	-1.23615E+000	-3.41711E-004	0.00000E+000	-1.23600E+000	0.00000E+000	9	...........	1401.08
	561	562	-1.21967E+000	-3.18941E-004	0.00000E+000	-1.21950E+000	0.00000E+000	9	...........	1401.08
	594	595	-1.20314E+000	-2.96673E-004	0.00000E+000	-1.20300E+000	0.00000E+000	9	...........	1401.08
	627	628	-1.18666E+000	-2.75385E-004	0.00000E+000	-1.18650E+000	0.00000E+000	9	...........	1401.08
	660	661	-1.17015E+000	-2.55693E-004	0.00000E+000	-1.17000E+000	0.00000E+000	9	...........	1401.08
	693	694	-1.15363E+000	-2.37664E-004	0.00000E+000	-1.15350E+000	0.00000E+000	9	...........	1401.08
	726	727	-1.13713E+000	-2.20968E-004	0.00000E+000	-1.13700E+000	0.00000E+000	9	...........	1401.08
	759	760	-1.12064E+000	-2.05193E-004	0.00000E+000	-1.12050E+000	0.00000E+000	9	...........	1401.08
	792	793	-1.10413E+000	-1.90593E-004	0.00000E+000	-1.10400E+000	0.00000E+000	9	...........	1401.00
	825	826	-1.08763E+000	-1.76867E-004	0.00000E+000	-1.08750E+000	0.00000E+000	9	...........	1401.08
	858	859	-1.07112E+000	-1.64238E-004	0.00000E+000	-1.07100E+000	0.00000E+000	9	...........	1401.00
	891	892	-1.05462E+000	-1.61366E-004	0.00000E+000	-1.05450E+000	0.00000E+000	9	...........	1401.00
	924	925	-1.03811E+000	-1.46819E-004	0.00000E+000	-1.03800E+000	0.00000E+000	9	...........	1401.00
	957	958	-1.02162E+000	-1.34115E-004	0.00000E+000	-1.02150E+000	0.00000E+000	9	...........	1401.00
	990	991	-1.00511E+000	-1.22678E-004	0.00000E+000	-1.00500E+000	0.00000E+000	9	...........	1401.00
	1023	1024	-9.88621E-001	-1.12117E-004	0.00000E+000	-9.88500E-001	0.00000E+000	9	...........	1401.00
	1056	1057	-9.72100E-001	-1.02291E-004	0.00000E+000	-9.72000E-001	0.00000E+000	9	...........	1401.00
	1089	1090	-9.55590E-001	-9.30464E-005	0.00000E+000	-9.55500E-001	0.00000E+000	9	...........	1401.00
	1122	1123	-9.39089E-001	-8.46648E-005	0.00000E+000	-9.39000E-001	0.00000E+000	9	...........	1401.00
	1155	1156	-9.22569E-001	-7.68567E-005	0.00000E+000	-9.22500E-001	0.00000E+000	8	...........	1401.00
	1188	1189	-9.06067E-001	-6.97990E-005	0.00000E+000	-9.06000E-001	0.00000E+000	8	...........	1401.00
	1221	1222	-8.89583E-001	-6.32239E-005	0.00000E+000	-8.89500E-001	0.00000E+000	8	...........	1401.00
	1254	1255	-8.73092E-001	-5.72556E-005	0.00000E+000	-8.73000E-001	0.00000E+000	8	...........	1401.00
	1287	1288	-8.56570E-001	-5.18895E-005	0.00000E+000	-8.56500E-001	0.00000E+000	8	...........	1401.00
	1320	1321	-8.40081E-001	-4.72194E-005	0.00000E+000	-8.40000E-001	0.00000E+000	8	...........	1401.00
	1353	1354	-8.23577E-001	-4.32035E-005	0.00000E+000	-8.23500E-001	0.00000E+000	8	...........	1401.00
	1386	1387	-8.07079E-001	-3.97675E-005	0.00000E+000	-8.07000E-001	0.00000E+000	8	...........	1401.00
	1419	1420	-7.90565E-001	-3.68657E-005	0.00000E+000	-7.90500E-001	0.00000E+000	8	...........	1401.00
	1452	1453	-7.74063E-001	-3.44005E-005	0.00000E+000	-7.74000E-001	0.00000E+000	8	...........	1400.91
	1485	1486	-7.57567E-001	-3.23298E-005	0.00000E+000	-7.57500E-001	0.00000E+000	8	...........	1400.91
	1518	1519	-7.41035E-001	-3.05352E-005	0.00000E+000	-7.41000E-001	0.00000E+000	8	...........	1400.82
	1551	1552	-7.24537E-001	-2.89774E-005	0.00000E+000	-7.24500E-001	0.00000E+000	8	...........	1400.82
	1584	1585	-7.08051E-001	-2.74808E-005	0.00000E+000	-7.08000E-001	0.00000E+000	8	...........	1400.91
	1617	1618	-6.91522E-001	-2.60001E-005	0.00000E+000	-6.91500E-001	0.00000E+000	8	...........	1400.91
	1650	1651	-6.75035E-001	-2.46431E-005	0.00000E+000	-6.75000E-001	0.00000E+000	8	...........	1400.91
	1683	1684	-6.58532E-001	-2.33745E-005	0.00000E+000	-6.58500E-001	0.00000E+000	8	...........	1400.91
	1716	1717	-6.42029E-001	-2.20516E-005	0.00000E+000	-6.42000E-001	0.00000E+000	8	...........	1400.91
	1749	1750	-6.25509E-001	-2.06938E-005	0.00000E+000	-6.25500E-001	0.00000E+000	8	...........	1400.91
	1782	1783	-6.09023E-001	-1.91752E-005	0.00000E+000	-6.09000E-001	0.00000E+000	8	...........	1400.91
	1815	1816	-5.92525E-001	-1.75763E-005	0.00000E+000	-5.92500E-001	0.00000E+000	8	...........	1400.91
	1848	1849	-5.75998E-001	-1.59107E-005	0.00000E+000	-5.76000E-001	0.00000E+000	8	...........	1400.91
	1881	1882	-5.59509E-001	-1.43104E-005	0.00000E+000	-5.59500E-001	0.00000E+000	8	...........	1400.82
	1914	1915	-5.42998E-001	-1.27065E-005	0.00000E+000	-5.43000E-001	0.00000E+000	8	...........	1400.91
	1947	1948	-5.26505E-001	-1.11392E-005	0.00000E+000	-5.26500E-001	0.00000E+000	8	...........	1400.91
	1980	1981	-5.09982E-001	-9.57154E-006	0.00000E+000	-5.10000E-001	0.00000E+000	8	...........	1400.91
	2013	2014	-4.93482E-001	-8.11371E-006	0.00000E+000	-4.93500E-001	0.00000E+000	8	...........	1400.91
	2046	2047	-4.76979E-001	-6.78520E-006	0.00000E+000	-4.77000E-001	0.00000E+000	7	...........	1400.91
	2079	2080	-4.60468E-001	-5.61810E-006	0.00000E+000	-4.60500E-001	0.00000E+000	7	...........	1400.91
	2112	2113	-4.43973E-001	-4.50559E-006	0.00000E+000	-4.44000E-001	0.00000E+000	7	...........	1400.91
	2145	2146	-4.27463E-001	-3.53189E-006	0.00000E+000	-4.27500E-001	0.00000E+000	7	...........	1400.91
	2178	2179	-4.10974E-001	-2.66532E-006	0.00000E+000	-4.11000E-001	0.00000E+000	7	...........	1400.91
	2211	2212	-3.94452E-001	-1.90923E-006	0.00000E+000	-3.94500E-001	0.00000E+000	7	...........	1400.91
	2244	2245	-3.77964E-001	-1.28659E-006	0.00000E+000	-3.78000E-001	0.00000E+000	7	...........	1400.91
	2277	2278	-3.61454E-001	-7.34779E-007	0.00000E+000	-3.61500E-001	0.00000E+000	7	...........	1400.73
	2310	2311	-3.44926E-001	-2.76531E-007	0.00000E+000	-3.45000E-001	0.00000E+000	6	...........	1400.91
	2343	2344	-3.28426E-001	1.01172E-007	0.00000E+000	-3.28500E-001	0.00000E+000	6	...........	1400.91
	2376	2377	-3.11932E-001	3.98721E-007	0.00000E+000	-3.12000E-001	0.00000E+000	6	....ih.....	1400.82
	2409	2410	-2.95436E-001	6.92470E-007	0.00000E+000	-2.95500E-001	0.00000E+000	7	...........	1400.73
	2442	2443	-2.78911E-001	8.99544E-007	0.00000E+000	-2.79000E-001	0.00000E+000	7	...........	1400.91
	2475	2476	-2.62426E-001	1.08728E-006	0.00000E+000	-2.62500E-001	0.00000E+000	7	...........	1400.82
	2508	2509	-2.45924E-001	1.24003E-006	0.00000E+000	-2.46000E-001	0.00000E+000	7	...........	1400.82
	2541	2542	-2.29399E-001	1.33066E-006	0.00000E+000	-2.29500E-001	0.00000E+000	7	...........	1401.00
	2574	2575	-2.12895E-001	1.43038E-006	0.00000E+000	-2.13000E-001	0.00000E+000	7	...........	1401.00
	2607	2608	-1.96392E-001	1.47572E-006	0.00000E+000	-1.96500E-001	0.00000E+000	7	...........	1401.00
	2640	2641	-1.79883E-001	1.52623E-006	0.00000E+000	-1.80000E-001	0.00000E+000	7	...........	1401.00
	2673	2674	-1.63378E-001	1.52879E-006	0.00000E+000	-1.63500E-001	0.00000E+000	7	...........	1401.08
	2706	2707	-1.46877E-001	1.54491E-006	0.00000E+000	-1.47000E-001	0.00000E+000	7	...........	1401.08
	2739	2740	-1.30366E-001	1.53925E-006	0.00000E+000	-1.30500E-001	0.00000E+000	7	...........	1401.08
	2772	2773	-1.13866E-001	1.51532E-006	0.00000E+000	-1.14000E-001	0.00000E+000	7	...........	1401.08
	2805	2806	-9.73712E-002	1.50304E-006	0.00000E+000	-9.75001E-002	0.00000E+000	7	...........	1401.08
	2838	2839	-8.08580E-002	1.48881E-006	0.00000E+000	-8.10001E-002	0.00000E+000	7	...........	1401.00
	2871	2872	-6.43605E-002	1.47946E-006	0.00000E+000	-6.45001E-002	0.00000E+000	7	...........	1401.08
	2904	2905	-4.78548E-002	1.47581E-006	0.00000E+000	-4.80001E-002	0.00000E+000	7	...........	1401.08
	2937	2938	-3.13460E-002	1.46862E-006	0.00000E+000	-3.15000E-002	0.00000E+000	7	...........	1401.08
	2970	2971	-1.48647E-002	1.46924E-006	0.00000E+000	-1.50000E-002	0.00000E+000	7	...........	1401.26
	3003	3004	1.66684E-003	1.46877E-006	0.00000E+000	1.49995E-003	0.00000E+000	7	...........	1401.26
	3036	3037	1.82063E-002	1.48232E-006	0.00000E+000	1.79999E-002	0.00000E+000	7	...........	1401.26
	3069	3070	3.46806E-002	1.48521E-006	0.00000E+000	3.44999E-002	0.00000E+000	7	...........	1401.08
	3102	3103	5.11937E-002	1.49992E-006	0.00000E+000	5.09999E-002	0.00000E+000	7	...........	1401.08
	3135	3136	6.77005E-002	1.51235E-006	0.00000E+000	6.74999E-002	0.00000E+000	7	...........	1401.08
	3168	3169	8.42002E-002	1.51919E-006	0.00000E+000	8.39999E-002	0.00000E+000	7	...........	1401.08
	3201	3202	1.00710E-001	1.53189E-006	0.00000E+000	1.00500E-001	0.00000E+000	7	...........	1401.08
	3234	3235	1.17209E-001	1.54363E-006	0.00000E+000	1.17000E-001	0.00000E+000	7	...........	1401.17
	3267	3268	1.19710E-001	1.34471E-006	0.00000E+000	1.19500E-001	0.00000E+000	7	...........	1401.17
	3276	3277	1.15205E-001	1.22709E-006	0.00000E+000	1.15000E-001	0.00000E+000	7	...........	1401.17